Wavelength (nm);Noise Figure (dB);;1*10^(-9)
0,000001525;4,68741;;
0,00000153;4,83042;;
0,000001535;4,82175;;
0,00000154;4,41296;;
0,000001545;4,20411;;
0,00000155;3,39445;;
0,000001555;3,98376;;
0,00000156;4,32586;;
0,000001565;4,51901;;
0,00000157;3,82073;;
